# Cooling Curve : CIE:[Fe/H] = +0.5
# Z = 3.16228
# log(T) ne      nH      nt      log(lambda net)
#
4 2.41565E-03 1.0000 1.1028 -24.2639
4.04999 1.43871E-02 1.0000 1.1028 -23.7961
4.09999 7.10566E-02 1.0000 1.1028 -22.978
4.14999 0.25467 1.0000 1.1028 -22.1928
4.2 0.57001 1.0000 1.1028 -21.7055
4.25001 0.82027 1.0000 1.1028 -21.5366
4.30001 0.93560 1.0000 1.1028 -21.5143
4.35 0.98122 1.0000 1.1028 -21.5038
4.4 1.0077 1.0000 1.1028 -21.4576
4.45 1.0390 1.0000 1.1028 -21.3701
4.5 1.0712 1.0000 1.1028 -21.2617
4.55 1.0903 1.0000 1.1028 -21.1542
4.6 1.0985 1.0000 1.1028 -21.0545
4.65 1.1020 1.0000 1.1028 -20.9642
4.7 1.1042 1.0000 1.1028 -20.8818
4.75 1.1075 1.0000 1.1028 -20.8052
4.8 1.1158 1.0000 1.1028 -20.7324
4.85 1.1341 1.0000 1.1028 -20.6606
4.9 1.1605 1.0000 1.1028 -20.5876
4.95 1.1831 1.0000 1.1028 -20.5167
5 1.1966 1.0000 1.1028 -20.4744
5.05 1.2038 1.0000 1.1028 -20.4606
5.1 1.2076 1.0000 1.1028 -20.4436
5.15 1.2097 1.0000 1.1028 -20.4127
5.2 1.2111 1.0000 1.1028 -20.3829
5.25 1.2123 1.0000 1.1028 -20.368
5.3 1.2135 1.0000 1.1028 -20.3614
5.35 1.2147 1.0000 1.1028 -20.3576
5.4 1.2163 1.0000 1.1028 -20.3867
5.45 1.2186 1.0000 1.1028 -20.5074
5.5 1.2205 1.0000 1.1028 -20.7122
5.55 1.2215 1.0000 1.1028 -20.903
5.6 1.2221 1.0000 1.1028 -21.0225
5.65 1.2224 1.0000 1.1028 -21.0755
5.7 1.2228 1.0000 1.1028 -21.089
5.75 1.2232 1.0000 1.1028 -21.0982
5.8 1.2238 1.0000 1.1028 -21.1503
5.85 1.2244 1.0000 1.1028 -21.2484
5.9 1.2250 1.0000 1.1028 -21.3192
5.95 1.2256 1.0000 1.1028 -21.3411
6 1.2262 1.0000 1.1028 -21.3482
6.05 1.2268 1.0000 1.1028 -21.3506
6.1 1.2276 1.0000 1.1028 -21.3432
6.15 1.2283 1.0000 1.1028 -21.3324
6.2 1.2292 1.0000 1.1028 -21.3317
6.25 1.2301 1.0000 1.1028 -21.3715
6.3 1.2310 1.0000 1.1028 -21.4843
6.35 1.2320 1.0000 1.1028 -21.6252
6.4 1.2329 1.0000 1.1028 -21.7444
6.45 1.2337 1.0000 1.1028 -21.8303
6.5 1.2344 1.0000 1.1028 -21.8836
6.55 1.2350 1.0000 1.1028 -21.9158
6.6 1.2354 1.0000 1.1028 -21.9418
6.65 1.2357 1.0000 1.1028 -21.9712
6.7 1.2360 1.0000 1.1028 -22.005
6.75 1.2363 1.0000 1.1028 -22.0386
6.8 1.2365 1.0000 1.1028 -22.0598
6.85 1.2367 1.0000 1.1028 -22.062
6.9 1.2369 1.0000 1.1028 -22.0501
6.95 1.2371 1.0000 1.1028 -22.0381
7 1.2373 1.0000 1.1028 -22.041
7.05 1.2375 1.0000 1.1028 -22.067
7.1 1.2377 1.0000 1.1028 -22.112
7.15 1.2378 1.0000 1.1028 -22.1643
7.2 1.2380 1.0000 1.1028 -22.214
7.25 1.2380 1.0000 1.1028 -22.2562
7.3 1.2381 1.0000 1.1028 -22.2898
7.35 1.2381 1.0000 1.1028 -22.3154
7.4 1.2382 1.0000 1.1028 -22.3342
7.45 1.2382 1.0000 1.1028 -22.3472
7.5 1.2382 1.0000 1.1028 -22.3552
7.55 1.2383 1.0000 1.1028 -22.3596
7.6 1.2383 1.0000 1.1028 -22.3603
7.65 1.2383 1.0000 1.1028 -22.3577
7.7 1.2383 1.0000 1.1028 -22.3521
7.75 1.2383 1.0000 1.1028 -22.3445
7.8 1.2384 1.0000 1.1028 -22.3348
7.85 1.2384 1.0000 1.1028 -22.3235
7.9 1.2384 1.0000 1.1028 -22.3111
7.95 1.2384 1.0000 1.1028 -22.2978
8 1.2385 1.0000 1.1028 -22.2838
8.05 1.2385 1.0000 1.1028 -22.2694
8.1 1.2385 1.0000 1.1028 -22.2546
8.15 1.2385 1.0000 1.1028 -22.2393
8.2 1.2385 1.0000 1.1028 -22.2237
8.25 1.2386 1.0000 1.1028 -22.2076
8.3 1.2386 1.0000 1.1028 -22.191
8.35 1.2386 1.0000 1.1028 -22.1739
8.4 1.2386 1.0000 1.1028 -22.1564
8.45 1.2386 1.0000 1.1028 -22.1383
8.5 1.2386 1.0000 1.1028 -22.1197
